/***********************************************************
* Ocean Resources and Renewable Energy Laboratory
* Version: v1.0 (Released on May 1st, 2021)
* Programmed by: Jessica Nguyen (Email: nvnguyen@umass.edu)
*----------------------------------------------------------
* Project Name:	NREL_VGOSWEC_inertia_springs

* Project Lead:	JD
* Labview Operator:	PH
* Comments:	Dry swing test to determine moment of inertia of VGOSWEC with springs. Naming convention: PHI (signed initial pos in deg) VGM (variable geometry module angle in deg).
* Date and Time:	Tue 06 Jul 2021 11:45:01 AM EDT
***********************************************************/

"Time(s)"	"Roll(deg)"	"Pitch(deg)"	
0.00000	0.00000	0.00000
0.00200	1.35300	89.73000
0.00400	1.35300	89.73000
0.00600	0.00000	0.00000
0.00800	1.26280	89.91000
0.01000	1.35300	89.73000
0.01200	1.35300	89.73000
0.01400	1.44320	89.73000
0.01600	1.44320	89.73000
0.01800	1.44320	89.73000
0.02000	1.35300	89.82000
0.02200	0.00000	0.00000
0.02400	1.26280	89.82000
0.02600	1.26280	89.91000
0.02800	1.26280	89.82000
0.03000	1.26280	89.73000
0.03200	1.26280	89.73000
0.03400	1.26280	89.73000
0.03600	0.00000	0.00000
0.03800	1.35300	89.73000
0.04000	1.35300	89.73000
0.04200	1.44320	89.82000
0.04400	0.00000	0.00000
0.04600	1.35300	89.82000
0.04800	1.26280	89.73000
0.05000	1.26280	89.82000
0.05200	0.00000	0.00000
0.05400	1.26280	89.82000
0.05600	1.35300	89.73000
0.05800	1.35300	89.91000
0.06000	0.00000	0.00000
0.06200	1.44320	89.82000
0.06400	1.35300	89.82000
0.06600	1.35300	89.91000
0.06800	1.26280	89.91000
0.07000	1.35300	89.82000
0.07200	1.35300	0.00000
0.07400	0.00000	0.00000
0.07600	1.44320	89.73000
0.07800	1.53340	89.73000
0.08000	1.53340	89.55000
0.08200	0.00000	0.00000
0.08400	1.53340	89.55000
0.08600	1.44320	89.55000
0.08800	1.35300	89.64000
0.09000	0.00000	0.00000
0.09200	1.44320	89.73000
0.09400	1.53340	89.82000
0.09600	1.53340	89.73000
0.09800	0.00000	0.00000
0.10000	1.44320	89.73000
0.10200	1.35300	89.73000
0.10400	1.35300	89.64000
0.10600	1.26280	89.73000
0.10800	1.17260	89.82000
0.11000	1.44320	89.82000
0.11200	0.00000	0.00000
0.11400	1.35300	89.73000
0.11600	1.35300	89.73000
0.11800	1.44320	89.73000
0.12000	0.00000	0.00000
0.12200	1.44320	89.82000
0.12400	1.35300	89.91000
0.12600	0.00000	0.00000
0.12800	0.00000	0.00000
0.13000	1.35300	89.91000
0.13200	1.26280	89.91000
0.13400	1.26280	89.91000
0.13600	1.35300	89.82000
0.13800	1.35300	89.82000
0.14000	1.26280	89.73000
0.14200	1.26280	89.82000
0.14400	1.35300	89.82000
0.14600	1.35300	89.64000
0.14800	1.35300	0.00000
0.15000	0.00000	0.00000
0.15200	1.35300	89.64000
0.15400	1.35300	89.64000
0.15600	1.44320	89.64000
0.15800	0.00000	89.64000
0.16000	1.44320	89.64000
0.16200	1.26280	89.73000
0.16400	0.00000	0.00000
0.16600	1.17260	89.64000
0.16800	1.35300	89.64000
0.17000	1.35300	89.55000
0.17200	0.00000	0.00000
0.17400	1.35300	89.73000
0.17600	1.35300	89.64000
0.17800	1.35300	89.73000
0.18000	0.00000	0.00000
0.18200	1.35300	89.82000
0.18400	1.35300	89.73000
0.18600	1.26280	89.73000
0.18800	0.00000	0.00000
0.19000	1.35300	89.73000
0.19200	1.35300	89.91000
0.19400	1.35300	89.91000
0.19600	0.00000	0.00000
0.19800	1.35300	89.82000
0.20000	1.35300	89.82000
0.20200	1.35300	89.82000
0.20400	1.26280	89.82000
0.20600	1.26280	89.73000
0.20800	1.26280	89.73000
0.21000	0.00000	0.00000
0.21200	1.44320	89.64000
0.21400	1.26280	89.73000
0.21600	1.26280	89.73000
0.21800	0.00000	0.00000
0.22000	1.35300	89.73000
0.22200	1.35300	89.73000
0.22400	1.35300	89.91000
0.22600	0.00000	0.00000
0.22800	1.26280	89.91000
0.23000	1.26280	89.73000
0.23200	1.26280	0.00000
0.23400	1.26280	89.55000
0.23600	1.26280	89.55000
0.23800	1.35300	89.73000
0.24000	1.35300	89.73000
0.24200	1.26280	89.73000
0.24400	1.26280	89.64000
0.24600	0.00000	0.00000
0.24800	0.00000	0.00000
0.25000	1.44320	89.82000
0.25200	0.00000	0.00000
0.25400	0.00000	0.00000
0.25600	1.35300	89.82000
0.25800	1.35300	89.82000
0.26000	1.35300	89.82000
0.26200	0.00000	0.00000
0.26400	0.00000	0.00000
0.26600	1.35300	89.82000
0.26800	1.26280	89.82000
0.27000	1.35300	89.73000
0.27200	1.35300	89.73000
0.27400	1.44320	89.82000
0.27600	1.44320	89.73000
0.27800	0.00000	0.00000
0.28000	1.53340	89.82000
0.28200	1.44320	89.82000
0.28400	1.35300	89.73000
0.28600	0.00000	0.00000
0.28800	1.44320	89.73000
0.29000	1.35300	89.73000
0.29200	1.35300	89.73000
0.29400	0.00000	0.00000
0.29600	1.35300	89.64000
0.29800	1.35300	89.73000
0.30000	0.00000	0.00000
0.30200	1.35300	89.73000
0.30400	1.44320	89.82000
0.30600	1.44320	89.82000
0.30800	0.00000	0.00000
0.31000	1.53340	89.82000
0.31200	1.44320	89.73000
0.31400	1.35300	89.82000
0.31600	0.00000	0.00000
0.31800	1.35300	89.73000
0.32000	1.44320	89.73000
0.32200	1.35300	89.91000
0.32400	0.00000	0.00000
0.32600	1.26280	89.91000
0.32800	1.26280	89.91000
0.33000	1.35300	89.91000
0.33200	1.35300	89.91000
0.33400	1.44320	90.00000
0.33600	1.35300	89.82000
0.33800	0.00000	0.00000
0.34000	1.35300	89.73000
0.34200	1.26280	89.73000
0.34400	1.35300	89.64000
0.34600	0.00000	0.00000
0.34800	1.35300	89.73000
0.35000	1.17260	89.64000
0.35200	1.26280	89.73000
0.35400	0.00000	0.00000
0.35600	1.26280	89.64000
0.35800	1.26280	89.73000
0.36000	1.26280	89.82000
0.36200	1.35300	89.82000
0.36400	1.17260	89.91000
0.36600	1.35300	89.82000
0.36800	0.00000	0.00000
0.37000	1.44320	89.82000
0.37200	1.44320	89.73000
0.37400	1.35300	89.91000
0.37600	0.00000	0.00000
0.37800	1.35300	90.00000
0.38000	1.26280	89.91000
0.38200	1.26280	89.73000
0.38400	0.00000	0.00000
0.38600	1.26280	89.73000
0.38800	1.44320	89.82000
0.39000	1.44320	89.73000
0.39200	0.00000	0.00000
0.39400	1.44320	89.82000
0.39600	1.35300	89.82000
0.39800	1.26280	89.82000
0.40000	1.35300	89.91000
0.40200	1.35300	89.82000
0.40400	1.26280	89.73000
0.40600	0.00000	0.00000
0.40800	1.35300	89.73000
0.41000	1.44320	89.73000
0.41200	1.44320	89.73000
0.41400	0.00000	0.00000
0.41600	1.44320	89.82000
0.41800	1.35300	89.73000
0.42000	1.35300	89.73000
0.42200	1.26280	89.82000
0.42400	1.44320	89.73000
0.42600	1.44320	89.73000
0.42800	0.00000	0.00000
0.43000	1.26280	89.82000
0.43200	1.26280	89.82000
0.43400	1.35300	89.82000
0.43600	0.00000	0.00000
0.43800	1.44320	89.82000
0.44000	1.26280	89.73000
0.44200	1.26280	89.73000
0.44400	0.00000	0.00000
0.44600	1.35300	89.82000
0.44800	1.35300	89.73000
0.45000	1.44320	89.73000
0.45200	0.00000	0.00000
0.45400	1.44320	89.73000
0.45600	0.00000	0.00000
0.45800	0.00000	0.00000
0.46000	1.44320	89.73000
0.46200	1.44320	89.73000
0.46400	1.44320	89.82000
0.46600	0.00000	0.00000
0.46800	1.44320	89.73000
0.47000	1.44320	89.73000
0.47200	1.35300	89.82000
0.47400	0.00000	0.00000
0.47600	1.26280	89.82000
0.47800	1.26280	89.73000
0.48000	1.35300	0.00000
0.48200	0.00000	0.00000
0.48400	1.35300	89.82000
0.48600	1.35300	89.91000
0.48800	1.44320	89.91000
0.49000	1.35300	89.82000
0.49200	1.35300	89.82000
0.49400	1.35300	89.73000
0.49600	0.00000	0.00000
0.49800	1.26280	89.82000
0.50000	1.35300	89.73000
0.50200	1.35300	89.73000
0.50400	0.00000	0.00000
0.50600	1.35300	89.73000
0.50800	1.44320	89.73000
0.51000	1.44320	89.64000
0.51200	0.00000	89.73000
0.51400	1.35300	89.73000
0.51600	1.35300	89.73000
0.51800	1.44320	89.73000
0.52000	1.44320	89.82000
0.52200	1.44320	89.82000
0.52400	1.44320	89.73000
0.52600	1.44320	89.73000
0.52800	1.44320	89.73000
0.53000	1.44320	89.64000
0.53200	1.35300	89.73000
0.53400	0.00000	0.00000
0.53600	1.44320	89.73000
0.53800	1.44320	89.73000
0.54000	1.35300	0.00000
0.54200	0.00000	0.00000
0.54400	1.35300	89.91000
0.54600	1.35300	89.82000
0.54800	1.35300	89.73000
0.55000	0.00000	0.00000
0.55200	1.26280	89.73000
0.55400	1.26280	89.82000
0.55600	1.26280	89.82000
0.55800	0.00000	0.00000
0.56000	1.26280	89.82000
0.56200	0.00000	0.00000
0.56400	0.00000	0.00000
0.56600	1.26280	89.82000
0.56800	1.26280	89.82000
0.57000	1.26280	89.82000
0.57200	0.00000	0.00000
0.57400	1.35300	89.82000
0.57600	1.17260	89.64000
0.57800	1.26280	89.73000
0.58000	0.00000	0.00000
0.58200	1.44320	89.73000
0.58400	1.35300	89.73000
0.58600	1.35300	89.82000
0.58800	1.44320	89.82000
0.59000	1.35300	89.82000
0.59200	1.35300	89.73000
0.59400	0.00000	0.00000
0.59600	1.35300	89.73000
0.59800	1.26280	89.82000
0.60000	1.26280	89.91000
0.60200	0.00000	0.00000
0.60400	1.26280	89.91000
0.60600	1.35300	89.82000
0.60800	1.35300	89.64000
0.61000	0.00000	0.00000
0.61200	1.35300	89.73000
0.61400	1.35300	89.73000
0.61600	1.44320	89.82000
0.61800	1.53340	89.82000
0.62000	1.53340	89.82000
0.62200	1.44320	89.82000
0.62400	0.00000	0.00000
0.62600	1.44320	89.91000
0.62800	1.26280	89.82000
0.63000	1.35300	89.82000
0.63200	0.00000	0.00000
0.63400	1.35300	89.82000
0.63600	1.35300	89.82000
0.63800	1.35300	89.82000
0.64000	0.00000	0.00000
0.64200	1.26280	89.82000
0.64400	1.35300	89.73000
0.64600	1.26280	89.64000
0.64800	0.00000	0.00000
0.65000	1.26280	89.73000
0.65200	1.26280	89.82000
0.65400	0.00000	0.00000
0.65600	1.35300	89.91000
0.65800	1.44320	89.91000
0.66000	1.35300	89.82000
0.66200	0.00000	0.00000
0.66400	1.35300	89.91000
0.66600	1.44320	89.91000
0.66800	1.35300	90.00000
0.67000	0.00000	0.00000
0.67200	1.35300	89.91000
0.67400	1.35300	89.73000
0.67600	0.00000	0.00000
0.67800	1.44320	89.73000
0.68000	1.35300	89.64000
0.68200	1.35300	89.73000
0.68400	0.00000	0.00000
0.68600	1.44320	89.73000
0.68800	1.53340	89.64000
0.69000	1.35300	89.64000
0.69200	0.00000	0.00000
0.69400	1.35300	89.64000
0.69600	1.35300	89.73000
0.69800	0.00000	0.00000
0.70000	1.35300	89.73000
0.70200	1.44320	89.82000
0.70400	0.00000	0.00000
0.70600	1.53340	89.82000
0.70800	1.53340	89.73000
0.71000	1.53340	89.73000
0.71200	0.00000	0.00000
0.71400	1.44320	89.73000
0.71600	1.44320	89.73000
0.71800	1.44320	89.73000
0.72000	0.00000	0.00000
0.72200	1.53340	89.82000
0.72400	1.53340	89.73000
0.72600	1.44320	89.73000
0.72800	0.00000	0.00000
0.73000	1.35300	89.82000
0.73200	1.35300	89.82000
0.73400	1.53340	89.82000
0.73600	0.00000	0.00000
0.73800	1.53340	89.82000
0.74000	1.35300	89.73000
0.74200	1.26280	89.73000
0.74400	0.00000	0.00000
0.74600	1.35300	89.73000
0.74800	1.44320	89.91000
0.75000	0.00000	0.00000
0.75200	1.53340	89.91000
0.75400	1.35300	89.82000
0.75600	1.26280	89.82000
0.75800	0.00000	0.00000
0.76000	1.26280	89.82000
0.76200	1.44320	89.73000
0.76400	1.44320	89.73000
0.76600	0.00000	0.00000
0.76800	1.44320	89.73000
0.77000	1.35300	89.64000
0.77200	0.00000	0.00000
0.77400	1.44320	89.73000
0.77600	1.53340	89.82000
0.77800	1.35300	89.82000
0.78000	0.00000	0.00000
0.78200	1.44320	89.82000
0.78400	1.44320	89.91000
0.78600	1.44320	90.00000
0.78800	0.00000	0.00000
0.79000	1.44320	89.91000
0.79200	1.44320	89.82000
0.79400	1.44320	89.73000
0.79600	0.00000	0.00000
0.79800	1.26280	89.73000
0.80000	1.35300	89.82000
0.80200	1.44320	89.82000
0.80400	0.00000	0.00000
0.80600	1.44320	89.82000
0.80800	1.35300	89.82000
0.81000	1.35300	89.73000
0.81200	0.00000	0.00000
0.81400	1.35300	89.82000
0.81600	1.35300	89.82000
0.81800	1.35300	89.91000
0.82000	1.26280	89.91000
0.82200	1.26280	89.91000
0.82400	1.26280	89.73000
0.82600	0.00000	0.00000
0.82800	1.17260	89.64000
0.83000	1.26280	89.73000
0.83200	1.44320	89.73000
0.83400	0.00000	0.00000
0.83600	1.35300	89.82000
0.83800	1.35300	89.82000
0.84000	1.26280	89.82000
0.84200	0.00000	0.00000
0.84400	1.17260	89.82000
0.84600	1.17260	89.82000
0.84800	1.17260	89.73000
0.85000	1.26280	89.73000
0.85200	1.17260	89.82000
0.85400	1.26280	89.73000
0.85600	0.00000	0.00000
0.85800	1.26280	89.82000
0.86000	1.35300	89.82000
0.86200	1.35300	89.82000
0.86400	1.17260	89.91000
0.86600	1.26280	89.82000
0.86800	1.26280	89.82000
0.87000	1.26280	89.73000
0.87200	0.00000	0.00000
0.87400	1.26280	89.82000
0.87600	1.26280	89.82000
0.87800	1.26280	89.82000
0.88000	1.26280	89.82000
0.88200	1.26280	89.82000
0.88400	1.35300	90.00000
0.88600	0.00000	0.00000
0.88800	1.35300	89.91000
0.89000	1.44320	89.91000
0.89200	1.53340	89.91000
0.89400	0.00000	0.00000
0.89600	1.53340	89.82000
0.89800	1.53340	89.91000
0.90000	1.44320	89.91000
0.90200	0.00000	0.00000
0.90400	1.53340	89.73000
0.90600	1.62360	89.73000
0.90800	1.53340	89.82000
0.91000	1.53340	89.73000
0.91200	1.62360	89.82000
0.91400	1.62360	89.82000
0.91600	0.00000	0.00000
0.91800	1.71380	89.91000
0.92000	1.62360	89.82000
0.92200	1.71380	89.91000
0.92400	0.00000	0.00000
0.92600	1.80400	89.91000
0.92800	1.62360	89.73000
0.93000	0.00000	0.00000
0.93200	1.71380	89.73000
0.93400	1.62360	89.64000
0.93600	1.62360	89.73000
0.93800	0.00000	0.00000
0.94000	1.71380	89.73000
0.94200	1.53340	89.73000
0.94400	1.53340	89.64000
0.94600	0.00000	0.00000
0.94800	1.62360	89.55000
0.95000	1.62360	89.46000
0.95200	0.00000	0.00000
0.95400	1.53340	89.55000
0.95600	1.62360	89.55000
0.95800	1.71380	89.64000
0.96000	0.00000	0.00000
0.96200	1.71380	89.55000
0.96400	1.71380	89.64000
0.96600	1.80400	89.64000
0.96800	0.00000	0.00000
0.97000	1.89420	89.64000
0.97200	1.89420	89.64000
0.97400	1.89420	89.73000
0.97600	0.00000	0.00000
0.97800	1.89420	89.55000
0.98000	1.89420	89.55000
0.98200	1.80400	89.46000
0.98400	0.00000	0.00000
0.98600	1.98440	89.55000
0.98800	1.98440	89.64000
0.99000	0.00000	0.00000
0.99200	1.89420	89.82000
0.99400	1.98440	89.73000
0.99600	1.89420	89.73000
0.99800	0.00000	0.00000
1.00000	1.98440	89.64000
1.00200	1.80400	89.64000
1.00400	1.89420	89.64000
1.00600	0.00000	0.00000
1.00800	1.89420	89.73000
1.01000	1.89420	89.73000
1.01200	1.98440	89.82000
1.01400	0.00000	0.00000
1.01600	1.98440	89.82000
1.01800	2.07460	89.64000
1.02000	0.00000	0.00000
1.02200	2.16480	89.73000
1.02400	2.07460	89.91000
1.02600	2.07460	89.91000
1.02800	0.00000	0.00000
1.03000	2.16480	89.82000
1.03200	2.25500	89.82000
1.03400	2.16480	89.91000
1.03600	0.00000	0.00000
1.03800	2.25500	89.82000
1.04000	2.34520	89.91000
1.04200	0.00000	0.00000
1.04400	2.25500	90.09000
1.04600	2.25500	90.00000
1.04800	2.25500	90.00000
1.05000	0.00000	0.00000
1.05200	2.25500	89.91000
1.05400	2.25500	89.82000
1.05600	2.34520	89.82000
1.05800	0.00000	0.00000
1.06000	2.25500	89.82000
1.06200	2.34520	89.73000
1.06400	0.00000	0.00000
1.06600	2.43540	89.82000
1.06800	2.52560	89.91000
1.07000	2.61580	89.91000
1.07200	0.00000	0.00000
1.07400	2.61580	89.91000
1.07600	2.70600	89.91000
1.07800	2.79620	89.82000
1.08000	0.00000	0.00000
1.08200	2.79620	89.91000
1.08400	2.79620	89.91000
1.08600	2.88640	89.82000
1.08800	0.00000	0.00000
1.09000	2.97660	89.82000
1.09200	3.24720	89.91000
1.09400	3.33740	89.91000
1.09600	0.00000	0.00000
1.09800	3.33740	89.91000
1.10000	3.51780	89.82000
1.10200	0.00000	0.00000
1.10400	3.69820	89.82000
1.10600	3.60800	89.91000
1.10800	3.69820	89.82000
1.11000	0.00000	0.00000
1.11200	3.69820	89.64000
1.11400	3.96880	89.73000
1.11600	3.96880	89.64000
1.11800	0.00000	0.00000
1.12000	3.96880	89.64000
1.12200	4.14920	89.82000
1.12400	4.14920	89.82000
1.12600	0.00000	0.00000
1.12800	4.23940	89.82000
1.13000	4.32960	89.64000
1.13200	4.32960	89.55000
1.13400	0.00000	0.00000
1.13600	4.32960	89.46000
1.13800	4.60020	89.55000
1.14000	0.00000	0.00000
1.14200	4.69040	89.55000
1.14400	4.78060	89.64000
1.14600	4.78060	89.64000
1.14800	0.00000	0.00000
1.15000	4.60020	89.55000
1.15200	4.78060	89.55000
1.15400	4.69040	89.64000
1.15600	0.00000	0.00000
1.15800	4.78060	89.55000
1.16000	4.60020	89.64000
1.16200	4.69040	89.55000
1.16400	0.00000	0.00000
1.16600	4.69040	89.55000
1.16800	4.69040	89.55000
1.17000	4.69040	89.64000
1.17200	0.00000	0.00000
1.17400	4.69040	89.64000
1.17600	4.60020	89.73000
1.17800	0.00000	0.00000
1.18000	4.41980	89.64000
1.18200	4.14920	89.82000
1.18400	4.14920	89.73000
1.18600	0.00000	0.00000
1.18800	4.14920	89.73000
1.19000	4.05900	89.91000
1.19200	3.96880	89.91000
1.19400	0.00000	0.00000
1.19600	3.87860	89.82000
1.19800	3.78840	89.73000
1.20000	3.60800	89.73000
1.20200	0.00000	0.00000
1.20400	3.42760	89.73000
1.20600	3.42760	89.82000
1.20800	3.33740	89.91000
1.21000	0.00000	0.00000
1.21200	3.42760	90.00000
1.21400	3.15700	89.91000
1.21600	0.00000	0.00000
1.21800	3.15700	89.82000
1.22000	3.24720	90.00000
1.22200	3.24720	90.00000
1.22400	0.00000	0.00000
1.22600	3.15700	90.00000
1.22800	3.15700	90.18000
1.23000	2.97660	90.09000
1.23200	0.00000	0.00000
1.23400	3.06680	90.09000
1.23600	2.97660	90.00000
1.23800	2.97660	90.00000
1.24000	0.00000	0.00000
1.24200	2.97660	90.00000
1.24400	2.97660	90.00000
1.24600	2.88640	90.00000
1.24800	2.97660	90.00000
1.25000	3.06680	90.09000
1.25200	0.00000	0.00000
1.25400	3.15700	90.00000
1.25600	3.06680	90.00000
1.25800	2.97660	90.00000
1.26000	3.06680	90.09000
1.26200	0.00000	0.00000
1.26400	2.97660	90.00000
1.26600	3.06680	89.91000
1.26800	3.06680	89.82000
1.27000	0.00000	0.00000
1.27200	3.06680	89.82000
1.27400	2.97660	89.91000
1.27600	3.06680	90.00000
1.27800	3.06680	89.91000
1.28000	2.97660	89.82000
1.28200	2.79620	89.73000
1.28400	0.00000	0.00000
1.28600	2.79620	89.82000
1.28800	2.79620	89.82000
1.29000	2.88640	89.73000
1.29200	2.88640	89.82000
1.29400	2.79620	89.82000
1.29600	2.79620	89.73000
1.29800	2.70600	89.64000
1.30000	2.70600	89.55000
1.30200	2.70600	89.64000
1.30400	2.61580	89.55000
1.30600	2.61580	89.55000
1.30800	2.61580	89.64000
1.31000	2.61580	89.55000
1.31200	2.52560	89.64000
1.31400	2.70600	89.73000
1.31600	2.70600	89.73000
1.31800	2.61580	89.73000
1.32000	2.61580	89.64000
1.32200	0.00000	0.00000
1.32400	2.52560	89.73000
1.32600	2.43540	89.64000
1.32800	2.43540	89.55000
1.33000	0.00000	0.00000
1.33200	2.43540	89.64000
1.33400	2.52560	89.64000
1.33600	2.43540	89.73000
1.33800	2.43540	89.73000
1.34000	2.52560	89.64000
1.34200	2.52560	89.73000
1.34400	2.52560	89.73000
1.34600	2.52560	89.73000
1.34800	2.52560	89.73000
1.35000	2.52560	89.64000
1.35200	0.00000	0.00000
1.35400	2.52560	89.73000
1.35600	2.52560	89.73000
1.35800	2.34520	89.73000
1.36000	2.34520	89.73000
1.36200	2.34520	89.73000
1.36400	2.16480	89.64000
1.36600	0.00000	0.00000
1.36800	2.16480	89.64000
1.37000	1.98440	89.64000
1.37200	1.89420	89.73000
1.37400	0.00000	0.00000
1.37600	1.89420	89.64000
1.37800	1.89420	89.73000
1.38000	1.80400	89.73000
1.38200	0.00000	0.00000
1.38400	1.71380	89.64000
1.38600	1.80400	89.64000
1.38800	1.80400	89.73000
1.39000	0.00000	0.00000
1.39200	1.80400	89.64000
1.39400	1.71380	89.64000
1.39600	1.71380	89.73000
1.39800	1.71380	89.73000
1.40000	1.71380	89.55000
1.40200	1.98440	89.64000
1.40400	0.00000	0.00000
1.40600	1.98440	89.73000
1.40800	2.07460	89.82000
1.41000	0.00000	0.00000
1.41200	0.00000	0.00000
1.41400	2.07460	89.82000
1.41600	2.07460	89.91000
1.41800	2.07460	89.91000
1.42000	2.07460	89.91000
1.42200	2.07460	89.82000
1.42400	2.16480	0.00000
1.42600	0.00000	0.00000
1.42800	2.25500	89.91000
1.43000	2.16480	89.91000
1.43200	2.16480	89.91000
1.43400	0.00000	0.00000
1.43600	2.07460	90.00000
1.43800	2.16480	90.00000
1.44000	2.07460	90.00000
1.44200	0.00000	0.00000
1.44400	2.07460	89.91000
1.44600	2.25500	89.91000
1.44800	2.25500	89.82000
1.45000	0.00000	0.00000
1.45200	2.25500	89.82000
1.45400	2.16480	89.73000
1.45600	2.25500	89.73000
1.45800	0.00000	0.00000
1.46000	2.34520	89.73000
1.46200	0.00000	0.00000
1.46400	0.00000	0.00000
1.46600	2.34520	89.64000
1.46800	2.34520	89.55000
1.47000	2.52560	89.55000
1.47200	0.00000	0.00000
1.47400	2.61580	89.55000
1.47600	2.61580	89.55000
1.47800	2.70600	89.55000
1.48000	0.00000	0.00000
1.48200	2.79620	89.55000
1.48400	2.70600	89.46000
1.48600	2.88640	89.28000
1.48800	0.00000	0.00000
1.49000	2.88640	89.19000
1.49200	2.88640	89.28000
1.49400	2.88640	89.37000
1.49600	0.00000	0.00000
1.49800	2.88640	89.37000
1.50000	2.97660	89.37000
1.50200	2.97660	89.37000
1.50400	2.88640	89.46000
1.50600	3.06680	89.46000
1.50800	3.06680	89.55000
1.51000	0.00000	0.00000
1.51200	3.15700	89.55000
1.51400	3.15700	89.55000
1.51600	2.97660	89.55000
1.51800	0.00000	0.00000
1.52000	3.06680	89.55000
1.52200	3.06680	89.64000
1.52400	2.97660	89.64000
1.52600	0.00000	0.00000
1.52800	3.06680	89.64000
1.53000	2.88640	89.64000
1.53200	0.00000	0.00000
1.53400	2.97660	89.73000
1.53600	3.06680	89.82000
1.53800	2.97660	89.73000
1.54000	2.88640	89.64000
1.54200	2.97660	89.64000
1.54400	2.97660	89.73000
1.54600	2.88640	89.73000
1.54800	0.00000	0.00000
1.55000	2.97660	89.82000
1.55200	2.88640	89.91000
1.55400	2.88640	89.82000
1.55600	2.79620	89.91000
