90 Deg Fixed Reg 15 13-Apr-2018
Time(s) LoadCell(N)
0.000000 -0.381634
0.020000 -0.376578
0.040000 -0.398242
0.060000 -0.413967
0.080000 -0.426627
0.100000 -0.461173
0.120000 -0.420045
0.140000 -0.456454
0.160000 -0.445727
0.180000 -0.404333
0.200000 -0.432802
0.220000 -0.416082
0.240000 -0.416096
0.260000 -0.396505
0.280000 -0.389840
0.300000 -0.413295
0.320000 -0.389952
0.340000 -0.370081
0.360000 -0.376565
0.380000 -0.388201
0.400000 -0.366510
0.420000 -0.344679
0.440000 -0.359340
0.460000 -0.360097
0.480000 -0.341164
0.500000 -0.338587
0.520000 -0.320173
0.540000 -0.301128
0.560000 -0.303439
0.580000 -0.253111
0.600000 -0.252803
0.620000 -0.243322
0.640000 -0.224054
0.660000 -0.247888
0.680000 -0.215652
0.700000 -0.225762
0.720000 -0.226266
0.740000 -0.205555
0.760000 -0.215428
0.780000 -0.181806
0.800000 -0.202881
0.820000 -0.174286
0.840000 -0.190572
0.860000 -0.184858
0.880000 -0.163069
0.900000 -0.180349
0.920000 -0.160213
0.940000 -0.143885
0.960000 -0.148660
0.980000 -0.141980
1.000000 -0.121381
1.020000 -0.119771
1.040000 -0.143254
1.060000 -0.128355
1.080000 -0.134838
1.100000 -0.125568
1.120000 -0.161585
1.140000 -0.158756
1.160000 -0.161627
1.180000 -0.171527
1.200000 -0.184200
1.220000 -0.235158
1.240000 -0.185068
1.260000 -0.249764
1.280000 -0.254217
1.300000 -0.281426
1.320000 -0.278849
1.340000 -0.284226
1.360000 -0.318661
1.380000 -0.306184
1.400000 -0.304531
1.420000 -0.318184
1.440000 -0.321713
1.460000 -0.327609
1.480000 -0.340618
1.500000 -0.357128
1.520000 -0.332580
1.540000 -0.351442
1.560000 -0.347228
1.580000 -0.365068
1.600000 -0.341276
1.620000 -0.342452
1.640000 -0.371649
1.660000 -0.354845
1.680000 -0.368387
1.700000 -0.332272
1.720000 -0.380233
1.740000 -0.360419
1.760000 -0.325942
1.780000 -0.362841
1.800000 -0.349636
1.820000 -0.333280
1.840000 -0.351751
1.860000 -0.353809
1.880000 -0.326278
1.900000 -0.355405
1.920000 -0.356750
1.940000 -0.344245
1.960000 -0.376495
1.980000 -0.331068
2.000000 -0.363990
2.020000 -0.402429
2.040000 -0.325774
2.060000 -0.395105
2.080000 -0.412861
2.100000 -0.399586
2.120000 -0.426445
2.140000 -0.422874
2.160000 -0.460151
2.180000 -0.469183
2.200000 -0.447016
2.220000 -0.516500
2.240000 -0.515394
2.260000 -0.514988
2.280000 -0.574488
2.300000 -0.566856
2.320000 -0.624284
2.340000 -0.626035
2.360000 -0.619719
2.380000 -0.696345
2.400000 -0.666686
2.420000 -0.738061
2.440000 -0.745665
2.460000 -0.763254
2.480000 -0.813778
2.500000 -0.807490
2.520000 -0.842947
2.540000 -0.867635
2.560000 -0.880546
2.580000 -0.923648
2.600000 -0.945647
2.620000 -0.938996
2.640000 -1.009783
2.660000 -1.006730
2.680000 -1.012191
2.700000 -1.070725
2.720000 -1.034009
2.740000 -1.093299
2.760000 -1.067155
2.780000 -1.076411
2.800000 -1.104712
2.820000 -1.103619
2.840000 -1.081816
2.860000 -1.089126
2.880000 -1.101785
2.900000 -1.050771
2.920000 -1.080108
2.940000 -1.056190
2.960000 -1.032342
2.980000 -1.032104
3.000000 -1.002585
3.020000 -1.013466
3.040000 -0.966092
3.060000 -0.965098
3.080000 -0.943407
3.100000 -0.947888
3.120000 -0.894171
3.140000 -0.897154
3.160000 -0.885181
3.180000 -0.829573
3.200000 -0.866304
3.220000 -0.820737
3.240000 -0.826381
3.260000 -0.794243
3.280000 -0.763141
3.300000 -0.793025
3.320000 -0.751869
3.340000 -0.726425
3.360000 -0.756616
3.380000 -0.744797
3.400000 -0.705000
3.420000 -0.738636
3.440000 -0.706568
3.460000 -0.737711
3.480000 -0.702073
3.500000 -0.657528
3.520000 -0.707282
3.540000 -0.631160
3.560000 -0.618417
3.580000 -0.604007
3.600000 -0.542630
3.620000 -0.518363
3.640000 -0.472404
3.660000 -0.429077
3.680000 -0.369339
3.700000 -0.321139
3.720000 -0.235117
3.740000 -0.202783
3.760000 -0.105851
3.780000 -0.030989
3.800000 0.007366
3.820000 0.108610
3.840000 0.170449
3.860000 0.287587
3.880000 0.364256
3.900000 0.449704
3.920000 0.572164
3.940000 0.664670
3.960000 0.783208
3.980000 0.891678
4.000000 0.997992
4.020000 1.158120
4.040000 1.295045
4.060000 1.391332
4.080000 1.594801
4.100000 1.719417
4.120000 1.877697
4.140000 2.066127
4.160000 2.194804
4.180000 2.379200
4.200000 2.531557
4.220000 2.697538
4.240000 2.861084
4.260000 3.043240
4.280000 3.217651
4.300000 3.382751
4.320000 3.602156
4.340000 3.766751
4.360000 3.986968
4.380000 4.179179
4.400000 4.380799
4.420000 4.613941
4.440000 4.812327
4.460000 5.008444
4.480000 5.146895
4.500000 5.356624
4.520000 5.536231
4.540000 5.678085
4.560000 5.808008
4.580000 5.918257
4.600000 6.070599
4.620000 6.199332
4.640000 6.312381
4.660000 6.423932
4.680000 6.576737
4.700000 6.773400
4.720000 6.876171
4.740000 7.054630
4.760000 7.234139
4.780000 7.452746
4.800000 7.658189
4.820000 7.756675
4.840000 7.945062
4.860000 8.128058
4.880000 8.226978
4.900000 8.120048
4.920000 8.012908
4.940000 7.962006
4.960000 7.792551
4.980000 7.502528
5.000000 7.176123
5.020000 7.063984
5.040000 6.921598
5.060000 6.722260
5.080000 6.510977
5.100000 6.463492
5.120000 6.535749
5.140000 6.388854
5.160000 6.239382
5.180000 6.261801
5.200000 6.238668
5.220000 6.184307
5.240000 6.056890
5.260000 5.993063
5.280000 6.049258
5.300000 6.008438
5.320000 5.880168
5.340000 5.818399
5.360000 5.694917
5.380000 5.594765
5.400000 5.443543
5.420000 5.220007
5.440000 5.061447
5.460000 4.911555
5.480000 4.755711
5.500000 4.570601
5.520000 4.297549
5.540000 4.119146
5.560000 3.885444
5.580000 3.575788
5.600000 3.163584
5.620000 2.810924
5.640000 2.528084
5.660000 2.157303
5.680000 1.735955
5.700000 1.404664
5.720000 1.080710
5.740000 0.682790
5.760000 0.256192
5.780000 -0.207460
5.800000 -0.594961
5.820000 -1.061833
5.840000 -1.574076
5.860000 -2.001389
5.880000 -2.437706
5.900000 -2.896722
5.920000 -3.297051
5.940000 -3.730707
5.960000 -4.160078
5.980000 -4.654243
6.000000 -5.106902
6.020000 -5.600394
6.040000 -6.121263
6.060000 -6.645788
6.080000 -7.103810
6.100000 -7.553920
6.120000 -8.135620
6.140000 -8.611468
6.160000 -9.103728
6.180000 -9.650588
6.200000 -10.219190
6.220000 -10.842710
6.240000 -11.279170
6.260000 -11.706760
6.280000 -12.600240
6.300000 -13.661240
6.320000 -13.944790
6.340000 -13.572790
6.360000 -14.038260
6.380000 -14.671840
6.400000 -14.841690
6.420000 -14.782820
6.440000 -14.839350
6.460000 -14.867260
6.480000 -14.352790
6.500000 -13.844360
6.520000 -13.540220
6.540000 -12.478610
6.560000 -11.253760
6.580000 -10.927880
6.600000 -10.594200
6.620000 -9.991024
6.640000 -9.618268
6.660000 -9.398779
6.680000 -8.918380
6.700000 -8.185416
6.720000 -7.685187
6.740000 -7.042867
6.760000 -5.861557
6.780000 -4.773075
6.800000 -4.149856
6.820000 -3.408167
6.840000 -2.487768
6.860000 -2.268335
6.880000 -2.004666
6.900000 -1.337644
6.920000 -1.045043
6.940000 -0.731284
6.960000 -0.152217
6.980000 0.199002
7.000000 0.417594
7.020000 0.539998
7.040000 0.744489
7.060000 0.835385
7.080000 0.689736
7.100000 0.931294
7.120000 1.238920
7.140000 1.236931
7.160000 1.514632
7.180000 1.832845
7.200000 1.805720
7.220000 1.808661
7.240000 1.856510
7.260000 1.843725
7.280000 1.853107
7.300000 1.899067
7.320000 2.154040
7.340000 2.310387
7.360000 2.316045
7.380000 2.534245
7.400000 2.577180
7.420000 2.353378
7.440000 2.445254
7.460000 2.550475
7.480000 2.499769
7.500000 2.699961
7.520000 3.084732
7.540000 3.317776
7.560000 3.498335
7.580000 3.782113
7.600000 3.995300
7.620000 4.074013
7.640000 4.216764
7.660000 4.563977
7.680000 4.883716
7.700000 5.172115
7.720000 5.753269
7.740000 6.200298
7.760000 6.442473
7.780000 6.855824
7.800000 7.201413
7.820000 7.413760
7.840000 7.700311
7.860000 8.164495
7.880000 8.721619
7.900000 9.186124
7.920000 9.658122
7.940000 10.358960
7.960000 10.841910
7.980000 11.113860
8.000000 11.580360
8.020000 12.054830
8.040000 12.433130
8.060000 12.919240
8.080000 13.589480
8.100000 14.167510
8.120000 14.737580
8.140000 15.380680
8.160000 15.874760
8.180000 16.305650
8.200000 16.729530
8.220000 17.124310
8.240000 17.398440
8.260000 17.370700
8.280000 17.489620
8.300000 17.620300
8.320000 17.473930
8.340000 17.277930
8.360000 17.325190
8.380000 17.368570
8.400000 17.325120
8.420000 17.282450
8.440000 17.637830
8.460000 17.958880
8.480000 17.518950
8.500000 17.172940
8.520000 16.669800
8.540000 15.861330
8.560000 14.772940
8.580000 13.783980
8.600000 13.044300
8.620000 12.196970
8.640000 11.462510
8.660000 10.878590
8.680000 10.470250
8.700000 10.157400
8.720000 9.553699
8.740000 8.933616
8.760000 8.448413
8.780000 7.942863
8.800000 7.296286
8.820000 6.749819
8.840000 6.262599
8.860000 5.935831
8.880000 5.679387
8.900000 5.341612
8.920000 4.939155
8.940000 4.465477
8.960000 4.168914
8.980000 3.754499
9.000000 3.111688
9.020000 2.637016
9.040000 2.450841
9.060000 2.296944
9.080000 1.909261
9.100000 1.560703
9.120000 1.332238
9.140000 1.092711
9.160000 0.642460
9.180000 -0.010236
9.200000 -0.295093
9.220000 -0.468245
9.240000 -0.859919
9.260000 -1.187415
9.280000 -1.386221
9.300000 -1.567075
9.320000 -1.849383
9.340000 -2.327906
9.360000 -2.748301
9.380000 -3.119852
9.400000 -3.529646
9.420000 -3.866455
9.440000 -4.153076
9.460000 -4.352064
9.480000 -4.442022
9.500000 -4.552172
9.520000 -4.723798
9.540000 -5.020319
9.560000 -5.272351
9.580000 -5.432116
9.600000 -5.703263
9.620000 -6.028253
9.640000 -6.123854
9.660000 -6.090862
9.680000 -6.127005
9.700000 -6.273410
9.720000 -6.408543
9.740000 -6.465634
9.760000 -6.660995
9.780000 -7.051815
9.800000 -7.297504
9.820000 -7.482153
9.840000 -7.625491
9.860000 -7.807941
9.880000 -7.989425
9.900000 -8.049681
9.920000 -8.210804
9.940000 -8.539113
9.960000 -8.831391
9.980000 -9.169012
10.000000 -9.553657
10.020000 -9.941410
10.040000 -10.333990
10.060000 -10.322200
10.080000 -10.049220
10.100000 -10.064880
10.120000 -10.056280
10.140000 -9.906905
10.160000 -9.712217
10.180000 -9.791280
10.200000 -10.065480
10.220000 -10.091370
10.240000 -9.870959
10.260000 -9.420261
10.280000 -8.890933
10.300000 -8.350473
10.320000 -7.791235
10.340000 -7.520312
10.360000 -7.594936
10.380000 -7.536388
10.400000 -7.225289
10.420000 -7.176865
10.440000 -7.205110
10.460000 -6.977065
10.480000 -6.443285
10.500000 -5.949288
10.520000 -5.453191
10.540000 -4.893322
10.560000 -4.507936
10.580000 -4.362777
10.600000 -4.220825
10.620000 -4.022089
10.640000 -3.998689
10.660000 -3.911252
10.680000 -3.468088
10.700000 -3.118830
10.720000 -2.904956
10.740000 -2.634789
10.760000 -2.293051
10.780000 -2.218427
10.800000 -2.246434
10.820000 -2.068815
10.840000 -1.840883
10.860000 -1.670518
10.880000 -1.383253
10.900000 -0.934080
10.920000 -0.677217
10.940000 -0.474476
10.960000 -0.213817
10.980000 -0.166766
11.000000 -0.172395
11.020000 -0.040428
11.040000 0.106146
11.060000 0.210457
11.080000 0.434987
11.100000 0.734967
11.120000 0.938464
11.140000 0.964846
11.160000 1.082614
11.180000 1.210031
11.200000 1.175162
11.220000 1.323738
11.240000 1.601201
11.260000 1.875569
11.280000 2.206804
11.300000 2.540967
11.320000 2.843986
11.340000 3.053728
11.360000 3.190695
11.380000 3.424145
11.400000 3.589399
11.420000 3.768908
11.440000 4.265705
11.460000 4.656987
11.480000 5.030737
11.500000 5.541244
11.520000 5.986047
11.540000 6.364992
11.560000 6.617305
11.580000 7.082819
11.600000 7.547198
11.620000 7.976219
11.640000 8.624113
11.660000 9.322629
11.680000 9.994707
11.700000 10.587010
11.720000 11.308660
11.740000 11.876680
11.760000 12.350350
11.780000 13.021940
11.800000 13.699940
11.820000 14.352640
11.840000 15.090760
11.860000 15.937060
11.880000 16.744020
11.900000 17.406770
11.920000 17.933710
11.940000 18.615430
11.960000 19.185620
11.980000 19.546610
12.000000 20.018810
12.020000 20.311320
12.040000 20.496690
12.060000 20.567530
12.080000 20.474520
12.100000 20.165980
12.120000 19.616340
12.140000 19.212860
12.160000 18.861130
12.180000 18.453440
12.200000 18.161530
12.220000 18.079410
12.240000 18.071820
12.260000 17.454790
12.280000 16.621340
12.300000 15.796120
12.320000 14.675950
12.340000 13.274670
12.360000 11.824180
12.380000 10.816090
12.400000 9.957752
12.420000 9.044942
12.440000 8.305971
12.460000 7.903556
12.480000 7.371694
12.500000 6.779128
12.520000 6.121572
12.540000 5.348236
12.560000 4.900744
12.580000 4.372327
12.600000 4.030085
12.620000 3.956511
12.640000 3.844008
12.660000 3.890261
12.680000 3.897487
12.700000 3.869508
12.720000 3.649935
12.740000 3.464209
12.760000 3.423977
12.780000 3.417157
12.800000 3.342954
12.820000 3.532629
12.840000 3.924541
12.860000 4.087485
12.880000 4.202536
12.900000 4.178030
12.920000 4.144282
12.940000 4.049689
12.960000 3.683487
12.980000 3.493938
13.000000 3.485522
13.020000 3.525319
13.040000 3.436426
13.060000 3.328922
13.080000 3.267910
13.100000 2.986078
13.120000 2.513646
13.140000 1.948022
13.160000 1.399076
13.180000 0.848618
13.200000 0.395203
13.220000 0.009200
13.240000 -0.428615
13.260000 -0.760929
13.280000 -1.203575
13.300000 -1.726545
13.320000 -2.416547
13.340000 -3.184954
13.360000 -3.857647
13.380000 -4.415569
13.400000 -4.988657
13.420000 -5.547854
13.440000 -5.825708
13.460000 -6.086633
13.480000 -6.510823
13.500000 -7.115544
13.520000 -7.634509
13.540000 -8.122373
13.560000 -8.813047
13.580000 -9.373363
13.600000 -9.857894
13.620000 -10.186590
13.640000 -10.417650
13.660000 -10.836760
13.680000 -11.122470
13.700000 -11.481280
13.720000 -11.990870
13.740000 -12.482530
13.760000 -13.018830
13.780000 -13.515560
13.800000 -13.865800
13.820000 -14.200340
13.840000 -14.451920
13.860000 -14.771720
13.880000 -15.238510
13.900000 -15.726090
13.920000 -15.971020
13.940000 -15.855170
13.960000 -15.992890
13.980000 -16.073510
14.000000 -15.818080
14.020000 -15.298230
14.040000 -14.961210
14.060000 -14.775080
14.080000 -14.518540
14.100000 -14.190030
14.120000 -13.942410
14.140000 -13.577360
14.160000 -12.898320
14.180000 -12.206610
14.200000 -11.368100
14.220000 -10.343980
14.240000 -9.584842
14.260000 -9.238805
14.280000 -8.805247
14.300000 -8.137398
14.320000 -7.874079
14.340000 -7.752236
14.360000 -7.276135
14.380000 -6.480016
14.400000 -5.826521
14.420000 -5.265392
14.440000 -4.407405
14.460000 -3.825650
14.480000 -3.633159
14.500000 -3.461212
14.520000 -3.264857
14.540000 -3.240449
14.560000 -3.153418
14.580000 -2.818626
14.600000 -2.470180
14.620000 -2.247120
14.640000 -1.982765
14.660000 -1.704896
14.680000 -1.788846
14.700000 -1.999401
14.720000 -1.995592
14.740000 -2.045080
14.760000 -2.179358
14.780000 -2.016625
14.800000 -1.688890
14.820000 -1.555172
14.840000 -1.533033
14.860000 -1.423078
14.880000 -1.462946
14.900000 -1.701815
14.920000 -1.787908
14.940000 -1.684857
14.960000 -1.571556
14.980000 -1.337111
15.000000 -0.870463
15.020000 -0.511403
15.040000 -0.295527
15.060000 -0.012351
15.080000 0.227051
15.100000 0.329555
15.120000 0.550262
15.140000 1.026209
15.160000 1.533047
15.180000 2.077175
15.200000 2.764601
15.220000 3.487440
15.240000 4.017258
15.260000 4.498917
15.280000 5.071795
15.300000 5.587175
15.320000 6.154171
15.340000 6.897904
15.360000 7.795688
15.380000 8.622573
15.400000 9.515553
15.420000 10.416450
15.440000 11.163220
15.460000 11.804870
15.480000 12.461260
15.500000 13.227220
15.520000 13.831640
15.540000 14.581200
15.560000 15.527910
15.580000 16.362880
15.600000 17.059680
15.620000 17.724340
15.640000 18.369310
15.660000 18.789370
15.680000 19.075180
15.700000 19.488160
15.720000 19.932420
15.740000 20.289230
15.760000 20.722240
15.780000 21.133850
15.800000 21.495040
15.820000 21.736910
15.840000 21.663640
15.860000 21.521690
15.880000 21.260990
15.900000 20.942080
15.920000 20.726280
15.940000 20.358070
15.960000 20.001750
15.980000 19.689600
16.000000 19.313260
16.020000 18.935530
16.040000 18.471100
16.060000 18.130000
16.080000 17.807180
16.100000 17.493290
16.120000 17.329220
16.140000 17.099870
16.160000 16.782070
16.180000 16.441270
16.200000 15.877700
16.220000 15.280450
16.240000 14.652880
16.260000 13.978330
16.280000 13.454310
16.300000 12.914240
16.320000 12.467550
16.340000 12.239560
16.360000 11.971170
16.380000 11.750240
16.400000 11.408950
16.420000 11.035300
16.440000 10.756940
16.460000 10.319470
16.480000 9.834172
16.500000 9.565868
16.520000 9.324562
16.540000 9.047323
16.560000 8.752664
16.580000 8.417928
16.600000 8.120188
16.620000 7.717731
16.640000 7.151827
16.660000 6.650801
16.680000 6.144649
16.700000 5.750314
16.720000 5.446021
16.740000 5.138773
16.760000 4.844423
16.780000 4.617736
16.800000 4.358884
16.820000 3.985806
16.840000 3.475145
16.860000 3.044920
16.880000 2.690985
16.900000 2.308721
16.920000 1.896350
16.940000 1.508863
16.960000 1.234859
16.980000 0.937455
17.000000 0.457686
17.020000 -0.046883
17.040000 -0.456272
17.060000 -0.915008
17.080000 -1.466797
17.100000 -1.937660
17.120000 -2.364398
17.140000 -2.684837
17.160000 -3.062004
17.180000 -3.491319
17.200000 -3.917456
17.220000 -4.318932
17.240000 -4.789137
17.260000 -5.281622
17.280000 -5.766936
17.300000 -6.241902
17.320000 -6.624124
17.340000 -7.014118
17.360000 -7.457339
17.380000 -7.889357
17.400000 -8.353918
17.420000 -8.790571
17.440000 -9.354557
17.460000 -9.964879
17.480000 -10.458820
17.500000 -10.981010
17.520000 -11.451270
17.540000 -12.014370
17.560000 -12.525420
17.580000 -12.988770
17.600000 -13.614810
17.620000 -14.290730
17.640000 -14.972860
17.660000 -15.737240
17.680000 -16.651650
17.700000 -17.370970
17.720000 -17.578990
17.740000 -17.920220
17.760000 -18.335100
17.780000 -18.569320
17.800000 -18.576240
17.820000 -18.658630
17.840000 -18.843760
17.860000 -18.821500
17.880000 -18.496580
17.900000 -18.313740
17.920000 -18.091210
17.940000 -17.409730
17.960000 -16.792580
17.980000 -16.102620
18.000000 -15.218550
18.020000 -14.436060
18.040000 -13.889840
18.060000 -13.518360
18.080000 -12.797270
18.100000 -12.049690
18.120000 -11.616300
18.140000 -11.030440
18.160000 -10.116230
18.180000 -9.330821
18.200000 -8.794996
18.220000 -8.098455
18.240000 -7.368907
18.260000 -7.047432
18.280000 -6.770544
18.300000 -6.378715
18.320000 -6.148584
18.340000 -5.986999
18.360000 -5.731634
18.380000 -5.484376
18.400000 -5.259202
18.420000 -5.196019
18.440000 -4.978071
18.460000 -4.909034
18.480000 -5.063085
18.500000 -4.971251
18.520000 -4.941956
18.540000 -4.966742
18.560000 -4.978855
18.580000 -4.865694
18.600000 -4.731345
18.620000 -4.816654
18.640000 -4.768048
18.660000 -4.629947
18.680000 -4.637047
18.700000 -4.632314
18.720000 -4.446279
18.740000 -4.214425
18.760000 -4.046987
18.780000 -3.679497
18.800000 -3.298353
18.820000 -3.030328
18.840000 -2.697062
18.860000 -2.261222
18.880000 -1.867713
18.900000 -1.494859
18.920000 -0.925440
18.940000 -0.330185
18.960000 0.210401
18.980000 0.828565
19.000000 1.434995
19.020000 2.103054
19.040000 2.609359
19.060000 3.298549
19.080000 3.914585
19.100000 4.669675
19.120000 5.320775
19.140000 6.093971
19.160000 6.978984
19.180000 7.525381
19.200000 8.367852
19.220000 9.032563
19.240000 9.593874
19.260000 10.291510
19.280000 10.964620
19.300000 11.642260
19.320000 12.287000
19.340000 13.024780
19.360000 13.781960
19.380000 14.445400
19.400000 14.920210
19.420000 15.541380
19.440000 16.090900
19.460000 16.541320
19.480000 17.020630
19.500000 17.564160
19.520000 18.187280
19.540000 18.647920
19.560000 19.167320
19.580000 19.609680
19.600000 20.042920
19.620000 20.420770
19.640000 20.698430
19.660000 21.034680
19.680000 21.178030
19.700000 21.347530
19.720000 21.566630
19.740000 21.549960
19.760000 21.520530
19.780000 21.415610
19.800000 21.185340
19.820000 20.793650
19.840000 20.479880
19.860000 20.256880
19.880000 20.216480
19.900000 20.013580
19.920000 19.903330
19.940000 20.005770
19.960000 19.742310
19.980000 19.122140
20.000000 18.330150
20.020000 17.580990
20.040000 16.700270
20.060000 15.629140
20.080000 14.766020
20.100000 14.129680
20.120000 13.640540
20.140000 13.054740
20.160000 12.580230
20.180000 12.256330
20.200000 11.825900
20.220000 11.271420
20.240000 10.710170
20.260000 10.236150
20.280000 9.800718
20.300000 9.473361
20.320000 9.169222
20.340000 8.919318
20.360000 8.690111
20.380000 8.360360
20.400000 8.084199
20.420000 7.583537
20.440000 6.978620
20.460000 6.636783
20.480000 6.307186
20.500000 5.921589
20.520000 5.622940
20.540000 5.502637
20.560000 5.390246
20.580000 5.135160
20.600000 4.665572
20.620000 4.347457
20.640000 4.041666
